#K-Path(1/A) Energy-Level(eV)
# NKPTS & NBANDS: 100  64
# Band-Index:    1
   0.00000    -10.326222
   0.01181    -10.367439
   0.02361    -10.407879
   0.03542    -10.447539
   0.04723    -10.486410
   0.05904    -10.524492
   0.07084    -10.561777
   0.08265    -10.598261
   0.09446    -10.633941
   0.10627    -10.668811
   0.11807    -10.702873
   0.12988    -10.736118
   0.14169    -10.768541
   0.15350    -10.800141
   0.16530    -10.830910
   0.17711    -10.860851
   0.18892    -10.889955
   0.20073    -10.918221
   0.21253    -10.945645
   0.22434    -10.972226
   0.23615    -10.997960
   0.24796    -11.022847
   0.25976    -11.046878
   0.27157    -11.070059
   0.28338    -11.092379
   0.29518    -11.113842
   0.30699    -11.134444
   0.31880    -11.154184
   0.33061    -11.173059
   0.34241    -11.191068
   0.35422    -11.208209
   0.36603    -11.224479
   0.37784    -11.239879
   0.38964    -11.254405
   0.40145    -11.268059
   0.41326    -11.280837
   0.42507    -11.292743
   0.43687    -11.303770
   0.44868    -11.313919
   0.46049    -11.323188
   0.47230    -11.331577
   0.48410    -11.339085
   0.49591    -11.345708
   0.50772    -11.351451
   0.51953    -11.356312
   0.53133    -11.360290
   0.54314    -11.363384
   0.55495    -11.365594
   0.56675    -11.366919
   0.57856    -11.367360
   0.57856    -11.367360
   0.59037    -11.366919
   0.60218    -11.365594
   0.61398    -11.363384
   0.62579    -11.360290
   0.63760    -11.356312
   0.64941    -11.351451
   0.66121    -11.345708
   0.67302    -11.339085
   0.68483    -11.331577
   0.69664    -11.323188
   0.70844    -11.313919
   0.72025    -11.303770
   0.73206    -11.292743
   0.74387    -11.280837
   0.75567    -11.268059
   0.76748    -11.254405
   0.77929    -11.239879
   0.79110    -11.224479
   0.80290    -11.208209
   0.81471    -11.191068
   0.82652    -11.173059
   0.83832    -11.154184
   0.85013    -11.134444
   0.86194    -11.113842
   0.87375    -11.092379
   0.88555    -11.070059
   0.89736    -11.046878
   0.90917    -11.022847
   0.92098    -10.997960
   0.93278    -10.972226
   0.94459    -10.945645
   0.95640    -10.918221
   0.96821    -10.889955
   0.98001    -10.860851
   0.99182    -10.830910
   1.00363    -10.800141
   1.01544    -10.768541
   1.02724    -10.736118
   1.03905    -10.702873
   1.05086    -10.668811
   1.06267    -10.633941
   1.07447    -10.598261
   1.08628    -10.561777
   1.09809    -10.524492
   1.10989    -10.486410
   1.12170    -10.447539
   1.13351    -10.407879
   1.14532    -10.367439
   1.15712    -10.326222
 
# Band-Index:    2
   1.15712    -10.326222
   1.14532    -10.284234
   1.13351    -10.241481
   1.12170    -10.197969
   1.10989    -10.153703
   1.09809    -10.108690
   1.08628    -10.062936
   1.07447    -10.016450
   1.06267     -9.969239
   1.05086     -9.921307
   1.03905     -9.872664
   1.02724     -9.823320
   1.01544     -9.773282
   1.00363     -9.722558
   0.99182     -9.671156
   0.98001     -9.619083
   0.96821     -9.566350
   0.95640     -9.512966
   0.94459     -9.458941
   0.93278     -9.455232
   0.92098     -9.475567
   0.90917     -9.495298
   0.89736     -9.514410
   0.88555     -9.532903
   0.87375     -9.550764
   0.86194     -9.567987
   0.85013     -9.584560
   0.83832     -9.600479
   0.82652     -9.615735
   0.81471     -9.630324
   0.80290     -9.644237
   0.79110     -9.657471
   0.77929     -9.670018
   0.76748     -9.681877
   0.75567     -9.693039
   0.74387     -9.703500
   0.73206     -9.713256
   0.72025     -9.722306
   0.70844     -9.730648
   0.69664     -9.738274
   0.68483     -9.745181
   0.67302     -9.751368
   0.66121     -9.756833
   0.64941     -9.761573
   0.63760     -9.765586
   0.62579     -9.768872
   0.61398     -9.771430
   0.60218     -9.773257
   0.59037     -9.774355
   0.57856     -9.774717
   0.57856     -9.774717
   0.56675     -9.774355
   0.55495     -9.773257
   0.54314     -9.771430
   0.53133     -9.768872
   0.51953     -9.765586
   0.50772     -9.761573
   0.49591     -9.756833
   0.48410     -9.751368
   0.47230     -9.745181
   0.46049     -9.738274
   0.44868     -9.730648
   0.43687     -9.722306
   0.42507     -9.713256
   0.41326     -9.703500
   0.40145     -9.693039
   0.38964     -9.681877
   0.37784     -9.670018
   0.36603     -9.657471
   0.35422     -9.644237
   0.34241     -9.630324
   0.33061     -9.615735
   0.31880     -9.600479
   0.30699     -9.584560
   0.29518     -9.567987
   0.28338     -9.550764
   0.27157     -9.532903
   0.25976     -9.514410
   0.24796     -9.495298
   0.23615     -9.475567
   0.22434     -9.455232
   0.21253     -9.458941
   0.20073     -9.512966
   0.18892     -9.566350
   0.17711     -9.619083
   0.16530     -9.671156
   0.15350     -9.722558
   0.14169     -9.773282
   0.12988     -9.823320
   0.11807     -9.872664
   0.10627     -9.921307
   0.09446     -9.969239
   0.08265    -10.016450
   0.07084    -10.062936
   0.05904    -10.108690
   0.04723    -10.153703
   0.03542    -10.197969
   0.02361    -10.241481
   0.01181    -10.284234
   0.00000    -10.326222
 
# Band-Index:    3
   0.00000     -8.970002
   0.01181     -8.999384
   0.02361     -9.028434
   0.03542     -9.057136
   0.04723     -9.085471
   0.05904     -9.113420
   0.07084     -9.140965
   0.08265     -9.168091
   0.09446     -9.194777
   0.10627     -9.221010
   0.11807     -9.246773
   0.12988     -9.272054
   0.14169     -9.296833
   0.15350     -9.321101
   0.16530     -9.344843
   0.17711     -9.368046
   0.18892     -9.390699
   0.20073     -9.412788
   0.21253     -9.434303
   0.22434     -9.404282
   0.23615     -9.349005
   0.24796     -9.293117
   0.25976     -9.236633
   0.27157     -9.179563
   0.28338     -9.121919
   0.29518     -9.063713
   0.30699     -9.004957
   0.31880     -8.945667
   0.33061     -8.885855
   0.34241     -8.825536
   0.35422     -8.764727
   0.36603     -8.703444
   0.37784     -8.641697
   0.38964     -8.579506
   0.40145     -8.516887
   0.41326     -8.453858
   0.42507     -8.390432
   0.43687     -8.326629
   0.44868     -8.262468
   0.46049     -8.197967
   0.47230     -8.133146
   0.48410     -8.068025
   0.49591     -8.002624
   0.50772     -7.936964
   0.51953     -7.871063
   0.53133     -7.804948
   0.54314     -7.738638
   0.55495     -7.672155
   0.56675     -7.605526
   0.57856     -7.538770
   0.57856     -7.538770
   0.59037     -7.605526
   0.60218     -7.672155
   0.61398     -7.738638
   0.62579     -7.804948
   0.63760     -7.871063
   0.64941     -7.936964
   0.66121     -8.002624
   0.67302     -8.068025
   0.68483     -8.133146
   0.69664     -8.197967
   0.70844     -8.262468
   0.72025     -8.326629
   0.73206     -8.390432
   0.74387     -8.453858
   0.75567     -8.516887
   0.76748     -8.579506
   0.77929     -8.641697
   0.79110     -8.703444
   0.80290     -8.764727
   0.81471     -8.825536
   0.82652     -8.885855
   0.83832     -8.945667
   0.85013     -9.004957
   0.86194     -9.063713
   0.87375     -9.121919
   0.88555     -9.179563
   0.89736     -9.236633
   0.90917     -9.293117
   0.92098     -9.349005
   0.93278     -9.404282
   0.94459     -9.434303
   0.95640     -9.412788
   0.96821     -9.390699
   0.98001     -9.368046
   0.99182     -9.344843
   1.00363     -9.321101
   1.01544     -9.296833
   1.02724     -9.272054
   1.03905     -9.246773
   1.05086     -9.221010
   1.06267     -9.194777
   1.07447     -9.168091
   1.08628     -9.140965
   1.09809     -9.113420
   1.10989     -9.085471
   1.12170     -9.057136
   1.13351     -9.028434
   1.14532     -8.999384
   1.15712     -8.970002
 
# Band-Index:    4
   1.15712     -8.970002
   1.14532     -8.940314
   1.13351     -8.910341
   1.12170     -8.880102
   1.10989     -8.849618
   1.09809     -8.818911
   1.08628     -8.788005
   1.07447     -8.756917
   1.06267     -8.725677
   1.05086     -8.694307
   1.03905     -8.662832
   1.02724     -8.631273
   1.01544     -8.599652
   1.00363     -8.567996
   0.99182     -8.536328
   0.98001     -8.504672
   0.96821     -8.473051
   0.95640     -8.441487
   0.94459     -8.410004
   0.93278     -8.378623
   0.92098     -8.347364
   0.90917     -8.316248
   0.89736     -8.285294
   0.88555     -8.254520
   0.87375     -8.223942
   0.86194     -8.193572
   0.85013     -8.163428
   0.83832     -8.133529
   0.82652     -8.103878
   0.81471     -8.074481
   0.80290     -8.045351
   0.79110     -8.016490
   0.77929     -7.987904
   0.76748     -7.959592
   0.75567     -7.931553
   0.74387     -7.903788
   0.73206     -7.876293
   0.72025     -7.849060
   0.70844     -7.822084
   0.69664     -7.795355
   0.68483     -7.768863
   0.67302     -7.742596
   0.66121     -7.716537
   0.64941     -7.690680
   0.63760     -7.665005
   0.62579     -7.639496
   0.61398     -7.614136
   0.60218     -7.588906
   0.59037     -7.563791
   0.57856     -7.538770
   0.57856     -7.538770
   0.56675     -7.563791
   0.55495     -7.588906
   0.54314     -7.614136
   0.53133     -7.639496
   0.51953     -7.665005
   0.50772     -7.690680
   0.49591     -7.716537
   0.48410     -7.742596
   0.47230     -7.768863
   0.46049     -7.795355
   0.44868     -7.822084
   0.43687     -7.849060
   0.42507     -7.876293
   0.41326     -7.903788
   0.40145     -7.931553
   0.38964     -7.959592
   0.37784     -7.987904
   0.36603     -8.016490
   0.35422     -8.045351
   0.34241     -8.074481
   0.33061     -8.103878
   0.31880     -8.133529
   0.30699     -8.163428
   0.29518     -8.193572
   0.28338     -8.223942
   0.27157     -8.254520
   0.25976     -8.285294
   0.24796     -8.316248
   0.23615     -8.347364
   0.22434     -8.378623
   0.21253     -8.410004
   0.20073     -8.441487
   0.18892     -8.473051
   0.17711     -8.504672
   0.16530     -8.536328
   0.15350     -8.567996
   0.14169     -8.599652
   0.12988     -8.631273
   0.11807     -8.662832
   0.10627     -8.694307
   0.09446     -8.725677
   0.08265     -8.756917
   0.07084     -8.788005
   0.05904     -8.818911
   0.04723     -8.849618
   0.03542     -8.880102
   0.02361     -8.910341
   0.01181     -8.940314
   0.00000     -8.970002
 
# Band-Index:    5
   0.00000     -6.135441
   0.01181     -6.169205
   0.02361     -6.202876
   0.03542     -6.236433
   0.04723     -6.269855
   0.05904     -6.303126
   0.07084     -6.336234
   0.08265     -6.369147
   0.09446     -6.401866
   0.10627     -6.434372
   0.11807     -6.466654
   0.12988     -6.498700
   0.14169     -6.530500
   0.15350     -6.562054
   0.16530     -6.593341
   0.17711     -6.624362
   0.18892     -6.655105
   0.20073     -6.685572
   0.21253     -6.715758
   0.22434     -6.745662
   0.23615     -6.775282
   0.24796     -6.804616
   0.25976     -6.833667
   0.27157     -6.862437
   0.28338     -6.890926
   0.29518     -6.919141
   0.30699     -6.947081
   0.31880     -6.974756
   0.33061     -7.002177
   0.34241     -7.029343
   0.35422     -7.056265
   0.36603     -7.082955
   0.37784     -7.109421
   0.38964     -7.135676
   0.40145     -7.161729
   0.41326     -7.187595
   0.42507     -7.213286
   0.43687     -7.238816
   0.44868     -7.264202
   0.46049     -7.289458
   0.47230     -7.314602
   0.48410     -7.339649
   0.49591     -7.364617
   0.50772     -7.389523
   0.51953     -7.414392
   0.53133     -7.439237
   0.54314     -7.464077
   0.55495     -7.488932
   0.56675     -7.513824
   0.57856     -7.538770
   0.57856     -7.538770
   0.59037     -7.513824
   0.60218     -7.488932
   0.61398     -7.464077
   0.62579     -7.439237
   0.63760     -7.414392
   0.64941     -7.389523
   0.66121     -7.364617
   0.67302     -7.339649
   0.68483     -7.314602
   0.69664     -7.289458
   0.70844     -7.264202
   0.72025     -7.238816
   0.73206     -7.213286
   0.74387     -7.187595
   0.75567     -7.161729
   0.76748     -7.135676
   0.77929     -7.109421
   0.79110     -7.082955
   0.80290     -7.056265
   0.81471     -7.029343
   0.82652     -7.002177
   0.83832     -6.974756
   0.85013     -6.947081
   0.86194     -6.919141
   0.87375     -6.890926
   0.88555     -6.862437
   0.89736     -6.833667
   0.90917     -6.804616
   0.92098     -6.775282
   0.93278     -6.745662
   0.94459     -6.715758
   0.95640     -6.685572
   0.96821     -6.655105
   0.98001     -6.624362
   0.99182     -6.593341
   1.00363     -6.562054
   1.01544     -6.530500
   1.02724     -6.498700
   1.03905     -6.466654
   1.05086     -6.434372
   1.06267     -6.401866
   1.07447     -6.369147
   1.08628     -6.336234
   1.09809     -6.303126
   1.10989     -6.269855
   1.12170     -6.236433
   1.13351     -6.202876
   1.14532     -6.169205
   1.15712     -6.135441
 
# Band-Index:    6
   1.15712     -6.135441
   1.14532     -6.101605
   1.13351     -6.067720
   1.12170     -6.033813
   1.10989     -5.999907
   1.09809     -5.966031
   1.08628     -5.932210
   1.07447     -5.898480
   1.06267     -5.864869
   1.05086     -5.831410
   1.03905     -5.798138
   1.02724     -5.765086
   1.01544     -5.732288
   1.00363     -5.699782
   0.99182     -5.667605
   0.98001     -5.635796
   0.96821     -5.604394
   0.95640     -5.573437
   0.94459     -5.542966
   0.93278     -5.575024
   0.92098     -5.637362
   0.90917     -5.699949
   0.89736     -5.762791
   0.88555     -5.825894
   0.87375     -5.889262
   0.86194     -5.952896
   0.85013     -6.016797
   0.83832     -6.080963
   0.82652     -6.145393
   0.81471     -6.210081
   0.80290     -6.275022
   0.79110     -6.340207
   0.77929     -6.405627
   0.76748     -6.471272
   0.75567     -6.537130
   0.74387     -6.603192
   0.73206     -6.669436
   0.72025     -6.735848
   0.70844     -6.802410
   0.69664     -6.869103
   0.68483     -6.935909
   0.67302     -7.002805
   0.66121     -7.069776
   0.64941     -7.136800
   0.63760     -7.203851
   0.62579     -7.270912
   0.61398     -7.337957
   0.60218     -7.404963
   0.59037     -7.471908
   0.57856     -7.538770
   0.57856     -7.538770
   0.56675     -7.471908
   0.55495     -7.404963
   0.54314     -7.337957
   0.53133     -7.270912
   0.51953     -7.203851
   0.50772     -7.136800
   0.49591     -7.069776
   0.48410     -7.002805
   0.47230     -6.935909
   0.46049     -6.869103
   0.44868     -6.802410
   0.43687     -6.735848
   0.42507     -6.669436
   0.41326     -6.603192
   0.40145     -6.537130
   0.38964     -6.471272
   0.37784     -6.405627
   0.36603     -6.340207
   0.35422     -6.275022
   0.34241     -6.210081
   0.33061     -6.145393
   0.31880     -6.080963
   0.30699     -6.016797
   0.29518     -5.952896
   0.28338     -5.889262
   0.27157     -5.825894
   0.25976     -5.762791
   0.24796     -5.699949
   0.23615     -5.637362
   0.22434     -5.575024
   0.21253     -5.542966
   0.20073     -5.573437
   0.18892     -5.604394
   0.17711     -5.635796
   0.16530     -5.667605
   0.15350     -5.699782
   0.14169     -5.732288
   0.12988     -5.765086
   0.11807     -5.798138
   0.10627     -5.831410
   0.09446     -5.864869
   0.08265     -5.898480
   0.07084     -5.932210
   0.05904     -5.966031
   0.04723     -5.999907
   0.03542     -6.033813
   0.02361     -6.067720
   0.01181     -6.101605
   0.00000     -6.135441
 
# Band-Index:    7
   0.00000     -4.421500
   0.01181     -4.481603
   0.02361     -4.541687
   0.03542     -4.601766
   0.04723     -4.661852
   0.05904     -4.721963
   0.07084     -4.782116
   0.08265     -4.842326
   0.09446     -4.902612
   0.10627     -4.962984
   0.11807     -5.023461
   0.12988     -5.084060
   0.14169     -5.144796
   0.15350     -5.205684
   0.16530     -5.266741
   0.17711     -5.327979
   0.18892     -5.389413
   0.20073     -5.451060
   0.21253     -5.512926
   0.22434     -5.513021
   0.23615     -5.483643
   0.24796     -5.454872
   0.25976     -5.426744
   0.27157     -5.399306
   0.28338     -5.372593
   0.29518     -5.346646
   0.30699     -5.321496
   0.31880     -5.297186
   0.33061     -5.273741
   0.34241     -5.251201
   0.35422     -5.229591
   0.36603     -5.208943
   0.37784     -5.189284
   0.38964     -5.170639
   0.40145     -5.153030
   0.41326     -5.136477
   0.42507     -5.120999
   0.43687     -5.106615
   0.44868     -5.093341
   0.46049     -5.081186
   0.47230     -5.070161
   0.48410     -5.060275
   0.49591     -5.051540
   0.50772     -5.043955
   0.51953     -5.037524
   0.53133     -5.032262
   0.54314     -5.028169
   0.55495     -5.025241
   0.56675     -5.023485
   0.57856     -5.022897
   0.57856     -5.022897
   0.59037     -5.023485
   0.60218     -5.025241
   0.61398     -5.028169
   0.62579     -5.032262
   0.63760     -5.037524
   0.64941     -5.043955
   0.66121     -5.051540
   0.67302     -5.060275
   0.68483     -5.070161
   0.69664     -5.081186
   0.70844     -5.093341
   0.72025     -5.106615
   0.73206     -5.120999
   0.74387     -5.136477
   0.75567     -5.153030
   0.76748     -5.170639
   0.77929     -5.189284
   0.79110     -5.208943
   0.80290     -5.229591
   0.81471     -5.251201
   0.82652     -5.273741
   0.83832     -5.297186
   0.85013     -5.321496
   0.86194     -5.346646
   0.87375     -5.372593
   0.88555     -5.399306
   0.89736     -5.426744
   0.90917     -5.454872
   0.92098     -5.483643
   0.93278     -5.513021
   0.94459     -5.512926
   0.95640     -5.451060
   0.96821     -5.389413
   0.98001     -5.327979
   0.99182     -5.266741
   1.00363     -5.205684
   1.01544     -5.144796
   1.02724     -5.084060
   1.03905     -5.023461
   1.05086     -4.962984
   1.06267     -4.902612
   1.07447     -4.842326
   1.08628     -4.782116
   1.09809     -4.721963
   1.10989     -4.661852
   1.12170     -4.601766
   1.13351     -4.541687
   1.14532     -4.481603
   1.15712     -4.421500
 
# Band-Index:    8
   1.15712     -4.421500
   1.14532     -4.361363
   1.13351     -4.301183
   1.12170     -4.240944
   1.10989     -4.180635
   1.09809     -4.124247
   1.08628     -4.143019
   1.07447     -4.160382
   1.06267     -4.176310
   1.05086     -4.190775
   1.03905     -4.203755
   1.02724     -4.215222
   1.01544     -4.225153
   1.00363     -4.233525
   0.99182     -4.240314
   0.98001     -4.245499
   0.96821     -4.249059
   0.95640     -4.250975
   0.94459     -4.251228
   0.93278     -4.249799
   0.92098     -4.246673
   0.90917     -4.241835
   0.89736     -4.235273
   0.88555     -4.226976
   0.87375     -4.216935
   0.86194     -4.205143
   0.85013     -4.191595
   0.83832     -4.176293
   0.82652     -4.159233
   0.81471     -4.140419
   0.80290     -4.119857
   0.79110     -4.097555
   0.77929     -4.073525
   0.76748     -4.047782
   0.75567     -4.020341
   0.74387     -3.991226
   0.73206     -3.960460
   0.72025     -3.928069
   0.70844     -3.894084
   0.69664     -3.858539
   0.68483     -3.821472
   0.67302     -3.782922
   0.66121     -3.742933
   0.64941     -3.701553
   0.63760     -3.658833
   0.62579     -3.614827
   0.61398     -3.569593
   0.60218     -3.523194
   0.59037     -3.475695
   0.57856     -3.427169
   0.57856     -3.427169
   0.56675     -3.475695
   0.55495     -3.523194
   0.54314     -3.569593
   0.53133     -3.614827
   0.51953     -3.658833
   0.50772     -3.701553
   0.49591     -3.742933
   0.48410     -3.782922
   0.47230     -3.821472
   0.46049     -3.858539
   0.44868     -3.894084
   0.43687     -3.928069
   0.42507     -3.960460
   0.41326     -3.991226
   0.40145     -4.020341
   0.38964     -4.047782
   0.37784     -4.073525
   0.36603     -4.097555
   0.35422     -4.119857
   0.34241     -4.140419
   0.33061     -4.159233
   0.31880     -4.176293
   0.30699     -4.191595
   0.29518     -4.205143
   0.28338     -4.216935
   0.27157     -4.226976
   0.25976     -4.235273
   0.24796     -4.241835
   0.23615     -4.246673
   0.22434     -4.249799
   0.21253     -4.251228
   0.20073     -4.250975
   0.18892     -4.249059
   0.17711     -4.245499
   0.16530     -4.240314
   0.15350     -4.233525
   0.14169     -4.225153
   0.12988     -4.215222
   0.11807     -4.203755
   0.10627     -4.190775
